# energy (eV), counts per bin, 120 channels coadded
7.500000 1
22.500000 31
37.500000 29
52.500000 29
67.500000 19
82.500000 27
97.500000 17
112.500000 19
127.500000 23
142.500000 10
157.500000 20
172.500000 17
187.500000 27
202.500000 14
217.500000 8
232.500000 17
247.500000 21
262.500000 7
277.500000 15
292.500000 12
307.500000 11
322.500000 18
337.500000 7
352.500000 17
367.500000 10
382.500000 17
397.500000 14
412.500000 13
427.500000 15
442.500000 16
457.500000 14
472.500000 16
487.500000 12
502.500000 16
517.500000 11
532.500000 11
547.500000 12
562.500000 13
577.500000 11
592.500000 14
607.500000 11
622.500000 14
637.500000 19
652.500000 14
667.500000 11
682.500000 13
697.500000 16
712.500000 18
727.500000 10
742.500000 19
757.500000 15
772.500000 15
787.500000 15
802.500000 7
817.500000 11
832.500000 14
847.500000 15
862.500000 21
877.500000 16
892.500000 14
907.500000 16
922.500000 12
937.500000 12
952.500000 12
967.500000 13
982.500000 20
997.500000 15
1012.500000 11
1027.500000 6
1042.500000 9
1057.500000 14
1072.500000 15
1087.500000 11
1102.500000 12
1117.500000 11
1132.500000 8
1147.500000 13
1162.500000 4
1177.500000 13
1192.500000 9
1207.500000 4
1222.500000 8
1237.500000 12
1252.500000 9
1267.500000 10
1282.500000 8
1297.500000 14
1312.500000 9
1327.500000 4
1342.500000 8
1357.500000 6
1372.500000 11
1387.500000 11
1402.500000 10
1417.500000 6
1432.500000 11
1447.500000 4
1462.500000 10
1477.500000 10
1492.500000 9
1507.500000 10
1522.500000 14
1537.500000 3
1552.500000 10
1567.500000 7
1582.500000 11
1597.500000 6
1612.500000 3
1627.500000 13
1642.500000 11
1657.500000 17
1672.500000 18
1687.500000 45
1702.500000 113
1717.500000 205
1732.500000 559
1747.500000 528
1762.500000 269
1777.500000 291
1792.500000 427
1807.500000 471
1822.500000 649
1837.500000 745
1852.500000 842
1867.500000 1039
1882.500000 1270
1897.500000 1493
1912.500000 1785
1927.500000 2071
1942.500000 2387
1957.500000 2650
1972.500000 2923
1987.500000 3067
2002.500000 3381
2017.500000 3440
2032.500000 3681
2047.500000 3720
2062.500000 4063
2077.500000 4215
2092.500000 4908
2107.500000 5502
2122.500000 6104
2137.500000 5689
2152.500000 5496
2167.500000 5849
2182.500000 5971
2197.500000 6610
2212.500000 6584
2227.500000 5929
2242.500000 5752
2257.500000 5879
2272.500000 6056
2287.500000 5911
2302.500000 6091
2317.500000 5991
2332.500000 6243
2347.500000 6193
2362.500000 6268
2377.500000 6489
2392.500000 6461
2407.500000 6490
2422.500000 6622
2437.500000 6685
2452.500000 6845
2467.500000 6825
2482.500000 7168
2497.500000 7233
2512.500000 7509
2527.500000 7869
2542.500000 8215
2557.500000 8870
2572.500000 10711
2587.500000 13906
2602.500000 15142
2617.500000 15645
2632.500000 16180
2647.500000 16562
2662.500000 17119
2677.500000 18366
2692.500000 19902
2707.500000 20853
2722.500000 21343
2737.500000 21529
2752.500000 21869
2767.500000 22131
2782.500000 22207
2797.500000 22425
2812.500000 22962
2827.500000 23311
2842.500000 23271
2857.500000 23514
2872.500000 24177
2887.500000 24702
2902.500000 24771
2917.500000 25127
2932.500000 25572
2947.500000 25923
2962.500000 25830
2977.500000 26126
2992.500000 26227
3007.500000 26362
3022.500000 26413
3037.500000 26611
3052.500000 26853
3067.500000 27128
3082.500000 27024
3097.500000 27161
3112.500000 27349
3127.500000 27606
3142.500000 28074
3157.500000 28589
3172.500000 29454
3187.500000 29604
3202.500000 29438
3217.500000 29407
3232.500000 29357
3247.500000 29399
3262.500000 29547
3277.500000 29438
3292.500000 29341
3307.500000 29315
3322.500000 29016
3337.500000 28764
3352.500000 28756
3367.500000 29058
3382.500000 29165
3397.500000 29238
3412.500000 28624
3427.500000 28126
3442.500000 28187
3457.500000 27875
3472.500000 27819
3487.500000 27677
3502.500000 27643
3517.500000 27357
3532.500000 27295
3547.500000 27305
3562.500000 27029
3577.500000 26670
3592.500000 26579
3607.500000 26575
3622.500000 26656
3637.500000 26441
3652.500000 26763
3667.500000 26397
3682.500000 26744
3697.500000 26843
3712.500000 26913
3727.500000 26768
3742.500000 26504
3757.500000 26600
3772.500000 26443
3787.500000 26314
3802.500000 26169
3817.500000 26042
3832.500000 26053
3847.500000 25845
3862.500000 25632
3877.500000 25299
3892.500000 25425
3907.500000 24914
3922.500000 24953
3937.500000 25307
3952.500000 25070
3967.500000 25095
3982.500000 25471
3997.500000 25454
4012.500000 25651
4027.500000 25578
4042.500000 25682
4057.500000 25538
4072.500000 25526
4087.500000 25044
4102.500000 24936
4117.500000 24790
4132.500000 24879
4147.500000 24739
4162.500000 24478
4177.500000 24248
4192.500000 24472
4207.500000 24177
4222.500000 24364
4237.500000 23869
4252.500000 23685
4267.500000 23786
4282.500000 23913
4297.500000 23521
4312.500000 23162
4327.500000 23299
4342.500000 23408
4357.500000 22964
4372.500000 22923
4387.500000 22824
4402.500000 22719
4417.500000 22784
4432.500000 22622
4447.500000 22538
4462.500000 22545
4477.500000 22518
4492.500000 22314
4507.500000 22204
4522.500000 22473
4537.500000 22102
4552.500000 22341
4567.500000 22089
4582.500000 22007
4597.500000 22222
4612.500000 21860
4627.500000 22064
4642.500000 21946
4657.500000 21834
4672.500000 21998
4687.500000 22119
4702.500000 22052
4717.500000 22116
4732.500000 22261
4747.500000 22042
4762.500000 22290
4777.500000 22360
4792.500000 22615
4807.500000 22466
4822.500000 23038
4837.500000 22957
4852.500000 23206
4867.500000 23206
4882.500000 23330
4897.500000 23785
4912.500000 23561
4927.500000 23945
4942.500000 24323
4957.500000 24402
4972.500000 24806
4987.500000 24904
5002.500000 25317
5017.500000 25502
5032.500000 26097
5047.500000 26439
5062.500000 26901
5077.500000 26844
5092.500000 27527
5107.500000 27804
5122.500000 28386
5137.500000 28937
5152.500000 29597
5167.500000 29756
5182.500000 30664
5197.500000 31160
5212.500000 31943
5227.500000 32285
5242.500000 33127
5257.500000 33500
5272.500000 34229
5287.500000 34853
5302.500000 35881
5317.500000 36413
5332.500000 37555
5347.500000 38901
5362.500000 39265
5377.500000 40486
5392.500000 40714
5407.500000 42279
5422.500000 43174
5437.500000 43976
5452.500000 44822
5467.500000 45911
5482.500000 47092
5497.500000 48385
5512.500000 49679
5527.500000 51132
5542.500000 52225
5557.500000 53944
5572.500000 55169
5587.500000 56227
5602.500000 57561
5617.500000 58836
5632.500000 60127
5647.500000 61227
5662.500000 63009
5677.500000 64907
5692.500000 66396
5707.500000 67492
5722.500000 69482
5737.500000 71071
5752.500000 72860
5767.500000 75015
5782.500000 76168
5797.500000 78287
5812.500000 79644
5827.500000 81393
5842.500000 83668
5857.500000 85104
5872.500000 86817
5887.500000 89247
5902.500000 90879
5917.500000 92845
5932.500000 94496
5947.500000 96607
5962.500000 99128
5977.500000 101461
5992.500000 102857
6007.500000 105198
6022.500000 107256
6037.500000 110146
6052.500000 111607
6067.500000 114159
6082.500000 117138
6097.500000 118525
6112.500000 120819
6127.500000 123008
6142.500000 125387
6157.500000 128336
6172.500000 130228
6187.500000 132965
6202.500000 134881
6217.500000 136959
6232.500000 139988
6247.500000 142532
6262.500000 144800
6277.500000 146493
6292.500000 149072
6307.500000 152311
6322.500000 154836
6337.500000 157526
6352.500000 160264
6367.500000 163979
6382.500000 167460
6397.500000 171100
6412.500000 171508
6427.500000 172112
6442.500000 174816
6457.500000 177252
6472.500000 180240
6487.500000 182392
6502.500000 183933
6517.500000 187746
6532.500000 189719
6547.500000 193157
6562.500000 194977
6577.500000 196973
6592.500000 200242
6607.500000 202636
6622.500000 205041
6637.500000 207431
6652.500000 209917
6667.500000 213250
6682.500000 215609
6697.500000 218022
6712.500000 220000
6727.500000 223336
6742.500000 225463
6757.500000 228277
6772.500000 230516
6787.500000 232619
6802.500000 235191
6817.500000 237732
6832.500000 240511
6847.500000 241997
6862.500000 244314
6877.500000 246030
6892.500000 249773
6907.500000 250957
6922.500000 253477
6937.500000 256060
6952.500000 258784
6967.500000 261052
6982.500000 262229
6997.500000 264554
7012.500000 266846
7027.500000 269163
7042.500000 271390
7057.500000 270538
7072.500000 271242
7087.500000 269267
7102.500000 256918
7117.500000 228612
7132.500000 206294
7147.500000 210497
7162.500000 211799
7177.500000 209822
7192.500000 210356
7207.500000 213091
7222.500000 217316
7237.500000 219082
7252.500000 220400
7267.500000 220768
7282.500000 222179
7297.500000 225253
7312.500000 226672
7327.500000 229196
7342.500000 231276
7357.500000 232273
7372.500000 233374
7387.500000 235102
7402.500000 237369
7417.500000 239467
7432.500000 241355
7447.500000 242635
7462.500000 244684
7477.500000 246447
7492.500000 248159
7507.500000 248334
7522.500000 249190
7537.500000 251435
7552.500000 253760
7567.500000 254549
7582.500000 255646
7597.500000 257193
7612.500000 258277
7627.500000 259794
7642.500000 261433
7657.500000 262781
7672.500000 263315
7687.500000 264439
7702.500000 265973
7717.500000 267158
7732.500000 267586
7747.500000 268500
7762.500000 269366
7777.500000 270903
7792.500000 273216
7807.500000 273292
7822.500000 273959
7837.500000 276310
7852.500000 276341
7867.500000 277274
7882.500000 277995
7897.500000 279962
7912.500000 281328
7927.500000 282292
7942.500000 283749
7957.500000 286347
7972.500000 289040
7987.500000 294952
8002.500000 314003
8017.500000 352605
8032.500000 374561
8047.500000 351931
8062.500000 301265
8077.500000 291549
8092.500000 289210
8107.500000 288461
8122.500000 289158
8137.500000 289445
8152.500000 290043
8167.500000 289884
8182.500000 290874
8197.500000 289897
8212.500000 290658
8227.500000 292478
8242.500000 292700
8257.500000 292612
8272.500000 293432
8287.500000 293348
8302.500000 292923
8317.500000 292555
8332.500000 293420
8347.500000 293204
8362.500000 294742
8377.500000 293748
8392.500000 294966
8407.500000 294867
8422.500000 294762
8437.500000 293832
8452.500000 295583
8467.500000 296403
8482.500000 296984
8497.500000 297275
8512.500000 294673
8527.500000 294316
8542.500000 294753
8557.500000 294087
8572.500000 294202
8587.500000 294885
8602.500000 294377
8617.500000 294097
8632.500000 293920
8647.500000 294069
8662.500000 293526
8677.500000 294061
8692.500000 293161
8707.500000 293035
8722.500000 294150
8737.500000 292355
8752.500000 292766
8767.500000 292443
8782.500000 292597
8797.500000 291691
8812.500000 291249
8827.500000 291903
8842.500000 293171
8857.500000 293172
8872.500000 297595
8887.500000 305988
8902.500000 300426
8917.500000 293173
8932.500000 290749
8947.500000 291043
8962.500000 296452
8977.500000 306426
8992.500000 312174
9007.500000 313071
9022.500000 313345
9037.500000 314126
9052.500000 312880
9067.500000 312807
9082.500000 310466
9097.500000 310149
9112.500000 311993
9127.500000 309329
9142.500000 308003
9157.500000 306680
9172.500000 307066
9187.500000 307846
9202.500000 306893
9217.500000 305585
9232.500000 303228
9247.500000 302403
9262.500000 303138
9277.500000 302256
9292.500000 302859
9307.500000 300632
9322.500000 299008
9337.500000 298632
9352.500000 298192
9367.500000 296229
9382.500000 297222
9397.500000 294991
9412.500000 294840
9427.500000 293174
9442.500000 291400
9457.500000 291217
9472.500000 290246
9487.500000 288915
9502.500000 289903
9517.500000 287691
9532.500000 286296
9547.500000 286960
9562.500000 285440
9577.500000 284923
9592.500000 286116
9607.500000 287142
9622.500000 284854
9637.500000 283689
9652.500000 285146
9667.500000 291783
9682.500000 305355
9697.500000 307026
9712.500000 290277
9727.500000 278604
9742.500000 273568
9757.500000 270976
9772.500000 270385
9787.500000 269411
9802.500000 267439
9817.500000 266751
9832.500000 264508
9847.500000 263554
9862.500000 262238
9877.500000 261534
9892.500000 260396
9907.500000 258123
9922.500000 257676
9937.500000 256628
9952.500000 255237
9967.500000 253947
9982.500000 253006
9997.500000 251695
10012.500000 250925
10027.500000 249032
10042.500000 248390
10057.500000 247937
10072.500000 246304
10087.500000 245896
10102.500000 243872
10117.500000 241452
10132.500000 241707
10147.500000 239882
10162.500000 239498
10177.500000 237267
10192.500000 236589
10207.500000 234368
10222.500000 234187
10237.500000 233294
10252.500000 231125
10267.500000 231055
10282.500000 227968
10297.500000 227832
10312.500000 227157
10327.500000 225459
10342.500000 223697
10357.500000 223515
10372.500000 222381
10387.500000 220702
10402.500000 218925
10417.500000 218098
10432.500000 217464
10447.500000 216924
10462.500000 216739
10477.500000 214844
10492.500000 213292
10507.500000 213478
10522.500000 211092
10537.500000 209702
10552.500000 207427
10567.500000 206722
10582.500000 204547
10597.500000 205305
10612.500000 202376
10627.500000 201495
10642.500000 200103
10657.500000 198999
10672.500000 197725
10687.500000 196523
10702.500000 196079
10717.500000 195016
10732.500000 193636
10747.500000 192532
10762.500000 190848
10777.500000 190031
10792.500000 188681
10807.500000 188362
10822.500000 187441
10837.500000 185061
10852.500000 184785
10867.500000 182973
10882.500000 181900
10897.500000 181118
10912.500000 180103
10927.500000 178860
10942.500000 177781
10957.500000 177310
10972.500000 176135
10987.500000 174835
11002.500000 173455
11017.500000 172711
11032.500000 172199
11047.500000 169892
11062.500000 168952
11077.500000 167354
11092.500000 166878
11107.500000 166206
11122.500000 164867
11137.500000 163582
11152.500000 162705
11167.500000 161381
11182.500000 160698
11197.500000 159190
11212.500000 158248
11227.500000 156872
11242.500000 156754
11257.500000 155807
11272.500000 153680
11287.500000 153287
11302.500000 152364
11317.500000 152123
11332.500000 150813
11347.500000 150024
11362.500000 151874
11377.500000 153098
11392.500000 153445
11407.500000 151962
11422.500000 148424
11437.500000 144844
11452.500000 142979
11467.500000 142147
11482.500000 140886
11497.500000 141561
11512.500000 141863
11527.500000 140870
11542.500000 140236
11557.500000 137609
11572.500000 135876
11587.500000 133814
11602.500000 133086
11617.500000 131861
11632.500000 130191
11647.500000 129478
11662.500000 128906
11677.500000 127794
11692.500000 126981
11707.500000 125361
11722.500000 124624
11737.500000 123226
11752.500000 123212
11767.500000 122226
11782.500000 120835
11797.500000 119647
11812.500000 118839
11827.500000 118431
11842.500000 118041
11857.500000 116428
11872.500000 115794
11887.500000 115507
11902.500000 113931
11917.500000 112983
11932.500000 111775
11947.500000 111258
11962.500000 110265
11977.500000 109529
11992.500000 109133
12007.500000 108094
12022.500000 106832
12037.500000 106363
12052.500000 105861
12067.500000 104669
12082.500000 104620
12097.500000 103352
12112.500000 103017
12127.500000 101641
12142.500000 100971
12157.500000 99778
12172.500000 98353
12187.500000 98301
12202.500000 97907
12217.500000 96810
12232.500000 95879
12247.500000 94795
12262.500000 94610
12277.500000 94017
12292.500000 92854
12307.500000 91866
12322.500000 91451
12337.500000 90673
12352.500000 90098
12367.500000 88835
12382.500000 88448
12397.500000 87828
12412.500000 87367
12427.500000 86401
12442.500000 85573
12457.500000 85343
12472.500000 84724
12487.500000 83819
12502.500000 82846
12517.500000 83011
12532.500000 81643
12547.500000 81318
12562.500000 80690
12577.500000 79766
12592.500000 79686
12607.500000 79138
12622.500000 78409
12637.500000 77614
12652.500000 77003
12667.500000 76252
12682.500000 75631
12697.500000 75617
12712.500000 74604
12727.500000 73779
12742.500000 73019
12757.500000 72362
12772.500000 71892
12787.500000 71865
12802.500000 70866
12817.500000 70582
12832.500000 69449
12847.500000 69121
12862.500000 68604
12877.500000 68234
12892.500000 67380
12907.500000 66856
12922.500000 66363
12937.500000 65939
12952.500000 65703
12967.500000 64936
12982.500000 64263
12997.500000 63605
13012.500000 63350
13027.500000 62940
13042.500000 62368
13057.500000 62031
13072.500000 61782
13087.500000 60933
13102.500000 60484
13117.500000 59775
13132.500000 59479
13147.500000 59477
13162.500000 58970
13177.500000 58810
13192.500000 59285
13207.500000 59215
13222.500000 60435
13237.500000 62067
13252.500000 64114
13267.500000 66287
13282.500000 69426
13297.500000 72365
13312.500000 75931
13327.500000 80616
13342.500000 84200
13357.500000 86228
13372.500000 87469
13387.500000 88368
13402.500000 88226
13417.500000 87621
13432.500000 87252
13447.500000 86490
13462.500000 86091
13477.500000 85541
13492.500000 84421
13507.500000 83587
13522.500000 83687
13537.500000 82343
13552.500000 81931
13567.500000 81876
13582.500000 80822
13597.500000 80080
13612.500000 79568
13627.500000 79337
13642.500000 78380
13657.500000 78043
13672.500000 76783
13687.500000 76925
13702.500000 76281
13717.500000 75012
13732.500000 74548
13747.500000 74455
13762.500000 73409
13777.500000 72911
13792.500000 72425
13807.500000 71432
13822.500000 71320
13837.500000 70536
13852.500000 70546
13867.500000 69677
13882.500000 68685
13897.500000 68484
13912.500000 67979
13927.500000 67351
13942.500000 66986
13957.500000 66344
13972.500000 65764
13987.500000 65168
14002.500000 64791
14017.500000 64230
14032.500000 63585
14047.500000 63792
14062.500000 62726
14077.500000 62269
14092.500000 61917
14107.500000 61508
14122.500000 60955
14137.500000 59959
14152.500000 58840
14167.500000 59188
14182.500000 58334
14197.500000 58151
14212.500000 57829
14227.500000 57287
14242.500000 56910
14257.500000 56491
14272.500000 55803
14287.500000 55340
14302.500000 54904
14317.500000 54521
14332.500000 54085
14347.500000 53684
14362.500000 53857
14377.500000 52848
14392.500000 52268
14407.500000 51952
14422.500000 51916
14437.500000 51266
14452.500000 50580
14467.500000 49831
14482.500000 49867
14497.500000 49869
14512.500000 49111
14527.500000 48799
14542.500000 48236
14557.500000 47580
14572.500000 47010
14587.500000 47283
14602.500000 46338
14617.500000 46411
14632.500000 45789
14647.500000 45227
14662.500000 45134
14677.500000 44846
14692.500000 43954
14707.500000 43873
14722.500000 43101
14737.500000 43320
14752.500000 42652
14767.500000 42051
14782.500000 42132
14797.500000 41779
14812.500000 41327
14827.500000 40885
14842.500000 40404
14857.500000 40221
14872.500000 40439
14887.500000 39835
14902.500000 39417
14917.500000 38884
14932.500000 38653
14947.500000 38185
14962.500000 38310
14977.500000 37853
14992.500000 37154
15007.500000 37011
15022.500000 36443
15037.500000 36604
15052.500000 36023
15067.500000 35971
15082.500000 35493
15097.500000 35712
15112.500000 35121
15127.500000 34724
15142.500000 34441
15157.500000 34415
15172.500000 33930
15187.500000 33321
15202.500000 33410
15217.500000 33127
15232.500000 33047
15247.500000 33040
15262.500000 32832
15277.500000 32701
15292.500000 32272
15307.500000 32031
15322.500000 31834
15337.500000 31751
15352.500000 31866
15367.500000 32214
15382.500000 31687
15397.500000 31994
15412.500000 31716
15427.500000 31676
15442.500000 32174
15457.500000 32049
15472.500000 32438
15487.500000 32475
15502.500000 32771
15517.500000 32349
15532.500000 32248
15547.500000 32455
15562.500000 32102
15577.500000 32186
15592.500000 32145
15607.500000 32291
15622.500000 31834
15637.500000 31407
15652.500000 31390
15667.500000 31228
15682.500000 31029
15697.500000 30789
15712.500000 30262
15727.500000 30254
15742.500000 30302
15757.500000 29471
15772.500000 29380
15787.500000 29127
15802.500000 28877
15817.500000 29087
15832.500000 28654
15847.500000 28494
15862.500000 28415
15877.500000 28209
15892.500000 28082
15907.500000 27387
15922.500000 27743
15937.500000 27639
15952.500000 27362
15967.500000 27471
15982.500000 26811
15997.500000 27008
16012.500000 27169
16027.500000 26521
16042.500000 26478
16057.500000 26644
16072.500000 26577
16087.500000 26420
16102.500000 26563
16117.500000 25937
16132.500000 26162
16147.500000 26032
16162.500000 25999
16177.500000 25485
16192.500000 25274
16207.500000 25230
16222.500000 25287
16237.500000 25037
16252.500000 24789
16267.500000 24560
16282.500000 24323
16297.500000 24283
16312.500000 24241
16327.500000 24091
16342.500000 23868
16357.500000 23519
16372.500000 23293
16387.500000 22980
16402.500000 22926
16417.500000 22954
16432.500000 22499
16447.500000 22367
16462.500000 22369
16477.500000 22364
16492.500000 22086
16507.500000 21750
16522.500000 21558
16537.500000 21639
16552.500000 21489
16567.500000 21159
16582.500000 21068
16597.500000 20672
16612.500000 20578
16627.500000 20416
16642.500000 20430
16657.500000 20177
16672.500000 19805
16687.500000 19775
16702.500000 19613
16717.500000 19348
16732.500000 19064
16747.500000 19079
16762.500000 19008
16777.500000 19093
16792.500000 18620
16807.500000 18708
16822.500000 18223
16837.500000 18393
16852.500000 18140
16867.500000 17893
16882.500000 18012
16897.500000 17884
16912.500000 17493
16927.500000 17506
16942.500000 17157
16957.500000 17109
16972.500000 16947
16987.500000 17047
17002.500000 16793
17017.500000 16697
17032.500000 16733
17047.500000 16329
17062.500000 16106
17077.500000 16250
17092.500000 16148
17107.500000 15964
17122.500000 15565
17137.500000 15637
17152.500000 15303
17167.500000 15331
17182.500000 15165
17197.500000 15105
17212.500000 15030
17227.500000 14833
17242.500000 15068
17257.500000 14795
17272.500000 14648
17287.500000 14525
17302.500000 14245
17317.500000 14088
17332.500000 14163
17347.500000 13835
17362.500000 13810
17377.500000 13873
17392.500000 13803
17407.500000 13617
17422.500000 13608
17437.500000 13158
17452.500000 13224
17467.500000 13047
17482.500000 12937
17497.500000 12893
17512.500000 13052
17527.500000 12745
17542.500000 12858
17557.500000 12524
17572.500000 12406
17587.500000 12484
17602.500000 12202
17617.500000 12374
17632.500000 12111
17647.500000 11969
17662.500000 11840
17677.500000 11817
17692.500000 11617
17707.500000 11672
17722.500000 11363
17737.500000 11586
17752.500000 11451
17767.500000 11183
17782.500000 11181
17797.500000 11224
17812.500000 11202
17827.500000 11147
17842.500000 10884
17857.500000 10814
17872.500000 10684
17887.500000 10671
17902.500000 10657
17917.500000 10468
17932.500000 10196
17947.500000 10262
17962.500000 10240
17977.500000 10157
17992.500000 10138
18007.500000 10076
18022.500000 9996
18037.500000 9708
18052.500000 9902
18067.500000 9812
18082.500000 9802
18097.500000 9561
18112.500000 9586
18127.500000 9548
18142.500000 9268
18157.500000 9294
18172.500000 9394
18187.500000 9370
18202.500000 9256
18217.500000 9075
18232.500000 8958
18247.500000 9099
18262.500000 8945
18277.500000 8757
18292.500000 8680
18307.500000 8753
18322.500000 8646
18337.500000 8628
18352.500000 8394
18367.500000 8358
18382.500000 8330
18397.500000 8312
18412.500000 8162
18427.500000 8400
18442.500000 8095
18457.500000 8068
18472.500000 8082
18487.500000 8081
18502.500000 7846
18517.500000 7836
18532.500000 7882
18547.500000 7732
18562.500000 7768
18577.500000 7676
18592.500000 7462
18607.500000 7512
18622.500000 7422
18637.500000 7386
18652.500000 7252
18667.500000 7410
18682.500000 7353
18697.500000 7321
18712.500000 7274
18727.500000 7369
18742.500000 6980
18757.500000 6980
18772.500000 6996
18787.500000 6902
18802.500000 6752
18817.500000 6788
18832.500000 6730
18847.500000 6860
18862.500000 6590
18877.500000 6659
18892.500000 6610
18907.500000 6564
18922.500000 6570
18937.500000 6572
18952.500000 6554
18967.500000 6383
18982.500000 6361
18997.500000 6286
19012.500000 6352
19027.500000 6338
19042.500000 6234
19057.500000 6107
19072.500000 5961
19087.500000 6217
19102.500000 5901
19117.500000 5903
19132.500000 5908
19147.500000 6048
19162.500000 5915
19177.500000 5943
19192.500000 5833
19207.500000 5715
19222.500000 5866
19237.500000 5595
19252.500000 5687
19267.500000 5588
19282.500000 5650
19297.500000 5671
19312.500000 5389
19327.500000 5406
19342.500000 5530
19357.500000 5460
19372.500000 5332
19387.500000 5349
19402.500000 5396
19417.500000 5284
19432.500000 5270
19447.500000 5234
19462.500000 5146
19477.500000 5093
19492.500000 5129
19507.500000 5109
19522.500000 5091
19537.500000 4998
19552.500000 5028
19567.500000 5033
19582.500000 4955
19597.500000 4864
19612.500000 4887
19627.500000 4840
19642.500000 4779
19657.500000 4829
19672.500000 4887
19687.500000 4737
19702.500000 4731
19717.500000 4661
19732.500000 4714
19747.500000 4740
19762.500000 4508
19777.500000 4496
19792.500000 4514
19807.500000 4506
19822.500000 4566
19837.500000 4347
19852.500000 4436
19867.500000 4423
19882.500000 4414
19897.500000 4380
19912.500000 4354
19927.500000 4274
19942.500000 4368
19957.500000 4219
19972.500000 4321
19987.500000 4227
20002.500000 4321
20017.500000 4203
20032.500000 4171
20047.500000 4222
20062.500000 4034
20077.500000 4066
20092.500000 4067
20107.500000 4113
20122.500000 3951
20137.500000 3979
20152.500000 3909
20167.500000 3883
20182.500000 3870
20197.500000 3868
20212.500000 3828
20227.500000 3797
20242.500000 3966
20257.500000 3832
20272.500000 3734
20287.500000 3918
20302.500000 3689
20317.500000 3661
20332.500000 3736
20347.500000 3543
20362.500000 3635
20377.500000 3656
20392.500000 3674
20407.500000 3591
20422.500000 3587
20437.500000 3715
20452.500000 3613
20467.500000 3546
20482.500000 3525
20497.500000 3630
20512.500000 3536
20527.500000 3277
20542.500000 3362
20557.500000 3504
20572.500000 3342
20587.500000 3487
20602.500000 3335
20617.500000 3341
20632.500000 3412
20647.500000 3287
20662.500000 3348
20677.500000 3356
20692.500000 3354
20707.500000 3229
20722.500000 3253
20737.500000 3278
20752.500000 3180
20767.500000 3209
20782.500000 3196
20797.500000 3216
20812.500000 3179
20827.500000 3268
20842.500000 3135
20857.500000 3163
20872.500000 3125
20887.500000 3059
20902.500000 3199
20917.500000 3015
20932.500000 3022
20947.500000 3000
20962.500000 2965
20977.500000 2979
20992.500000 2952
21007.500000 3006
21022.500000 2943
21037.500000 2904
21052.500000 2967
21067.500000 2912
21082.500000 2873
21097.500000 2889
21112.500000 2826
21127.500000 2847
21142.500000 2835
21157.500000 2883
21172.500000 2897
21187.500000 2857
21202.500000 2896
21217.500000 2743
21232.500000 2736
21247.500000 2763
21262.500000 2673
21277.500000 2658
21292.500000 2660
21307.500000 2765
21322.500000 2823
21337.500000 2734
21352.500000 2750
21367.500000 2730
21382.500000 2663
21397.500000 2610
21412.500000 2542
21427.500000 2636
21442.500000 2690
21457.500000 2593
21472.500000 2649
21487.500000 2546
21502.500000 2498
21517.500000 2552
21532.500000 2624
21547.500000 2590
21562.500000 2584
21577.500000 2546
21592.500000 2553
21607.500000 2516
21622.500000 2451
21637.500000 2491
21652.500000 2469
21667.500000 2473
21682.500000 2504
21697.500000 2420
21712.500000 2381
21727.500000 2475
21742.500000 2404
21757.500000 2415
21772.500000 2455
21787.500000 2415
21802.500000 2461
21817.500000 2255
21832.500000 2290
21847.500000 2397
21862.500000 2378
21877.500000 2301
21892.500000 2385
21907.500000 2299
21922.500000 2322
21937.500000 2377
21952.500000 2290
21967.500000 2224
21982.500000 2259
21997.500000 2229
22012.500000 2268
22027.500000 2240
22042.500000 2102
22057.500000 2200
22072.500000 2232
22087.500000 2238
22102.500000 2247
22117.500000 2247
22132.500000 2213
22147.500000 2175
22162.500000 2158
22177.500000 2178
22192.500000 2106
22207.500000 2118
22222.500000 2056
22237.500000 2092
22252.500000 2110
22267.500000 2076
22282.500000 2048
22297.500000 2127
22312.500000 2024
22327.500000 2089
22342.500000 2095
22357.500000 2044
22372.500000 2057
22387.500000 2054
22402.500000 2164
22417.500000 2017
22432.500000 2001
22447.500000 2001
22462.500000 1968
22477.500000 1982
22492.500000 1988
22507.500000 1961
22522.500000 1894
22537.500000 1922
22552.500000 1963
22567.500000 1997
22582.500000 1918
22597.500000 2015
22612.500000 1884
22627.500000 1931
22642.500000 1839
22657.500000 1869
22672.500000 1896
22687.500000 1821
22702.500000 1892
22717.500000 1921
22732.500000 1858
22747.500000 1872
22762.500000 1851
22777.500000 1845
22792.500000 1798
22807.500000 1846
22822.500000 1850
22837.500000 1838
22852.500000 1811
22867.500000 1879
22882.500000 1873
22897.500000 1763
22912.500000 1736
22927.500000 1738
22942.500000 1686
22957.500000 1723
22972.500000 1763
22987.500000 1796
23002.500000 1785
23017.500000 1721
23032.500000 1671
23047.500000 1684
23062.500000 1739
23077.500000 1714
23092.500000 1676
23107.500000 1715
23122.500000 1743
23137.500000 1699
23152.500000 1665
23167.500000 1761
23182.500000 1681
23197.500000 1641
23212.500000 1636
23227.500000 1723
23242.500000 1630
23257.500000 1762
23272.500000 1681
23287.500000 1682
23302.500000 1638
23317.500000 1625
23332.500000 1601
23347.500000 1591
23362.500000 1580
23377.500000 1540
23392.500000 1552
23407.500000 1555
23422.500000 1609
23437.500000 1521
23452.500000 1433
23467.500000 1538
23482.500000 1585
23497.500000 1415
23512.500000 1449
23527.500000 1416
23542.500000 1466
23557.500000 1489
23572.500000 1398
23587.500000 1472
23602.500000 1380
23617.500000 1347
23632.500000 1426
23647.500000 1409
23662.500000 1348
23677.500000 1404
23692.500000 1421
23707.500000 1362
23722.500000 1384
23737.500000 1347
23752.500000 1362
23767.500000 1260
23782.500000 1319
23797.500000 1311
23812.500000 1370
23827.500000 1313
23842.500000 1313
23857.500000 1268
23872.500000 1273
23887.500000 1267
23902.500000 1274
23917.500000 1282
23932.500000 1271
23947.500000 1217
23962.500000 1337
23977.500000 1271
23992.500000 1262
24007.500000 1265
24022.500000 1279
24037.500000 1246
24052.500000 1285
24067.500000 1186
24082.500000 1254
24097.500000 1155
24112.500000 1197
24127.500000 1166
24142.500000 1196
24157.500000 1269
24172.500000 1169
24187.500000 1173
24202.500000 1147
24217.500000 1126
24232.500000 1127
24247.500000 1143
24262.500000 1102
24277.500000 1073
24292.500000 1081
24307.500000 1078
24322.500000 1109
24337.500000 1090
24352.500000 1124
24367.500000 1058
24382.500000 1110
24397.500000 1037
24412.500000 1125
24427.500000 1061
24442.500000 1023
24457.500000 1038
24472.500000 999
24487.500000 1011
24502.500000 1013
24517.500000 1032
24532.500000 991
24547.500000 1005
24562.500000 992
24577.500000 948
24592.500000 1040
24607.500000 972
24622.500000 1041
24637.500000 993
24652.500000 975
24667.500000 888
24682.500000 990
24697.500000 933
24712.500000 960
24727.500000 928
24742.500000 973
24757.500000 910
24772.500000 987
24787.500000 914
24802.500000 931
24817.500000 946
24832.500000 971
24847.500000 912
24862.500000 896
24877.500000 866
24892.500000 900
24907.500000 912
24922.500000 831
24937.500000 825
24952.500000 843
24967.500000 859
24982.500000 816
